Main-Trace,Start Freq(Hz),Stop Freq(Hz),Center Freq(Hz),Span Freq(Hz)
Spectrum,284997500000,285002500000,285000000000,5000000,

Analysis Start Time(ms),Analysis Time Length(ms),Capture Time(ms),ATT(dB)
0,50,50,60

Ref Level(dBm),Pre-Amp
10.00, Off

RBW(Hz),Marker Result
30000,Integration

Detection,Trace Point
Average,1025

Storage Mode
Off

Wave Data(dBm)
-43.691
-43.668
-43.646
-43.635
-43.640
-43.656
-43.670
-43.673
-43.660
-43.634
-43.604
-43.578
-43.563
-43.563
-43.578
-43.608
-43.649
-43.701
-43.757
-43.806
-43.833
-43.825
-43.777
-43.701
-43.618
-43.550
-43.512
-43.509
-43.533
-43.569
-43.603
-43.630
-43.647
-43.661
-43.673
-43.681
-43.682
-43.675
-43.662
-43.643
-43.619
-43.594
-43.576
-43.572
-43.584
-43.606
-43.633
-43.660
-43.684
-43.702
-43.706
-43.690
-43.651
-43.594
-43.532
-43.477
-43.438
-43.420
-43.425
-43.459
-43.524
-43.621
-43.735
-43.841
-43.911
-43.928
-43.898
-43.844
-43.791
-43.755
-43.737
-43.727
-43.710
-43.683
-43.649
-43.617
-43.595
-43.584
-43.580
-43.580
-43.581
-43.583
-43.584
-43.583
-43.580
-43.584
-43.601
-43.635
-43.678
-43.718
-43.743
-43.748
-43.733
-43.701
-43.655
-43.602
-43.550
-43.511
-43.485
-43.467
-43.447
-43.423
-43.399
-43.379
-43.366
-43.356
-43.348
-43.346
-43.352
-43.365
-43.384
-43.410
-43.445
-43.492
-43.546
-43.599
-43.643
-43.673
-43.688
-43.686
-43.663
-43.621
-43.568
-43.521
-43.495
-43.499
-43.531
-43.580
-43.632
-43.672
-43.689
-43.679
-43.643
-43.593
-43.545
-43.510
-43.490
-43.479
-43.472
-43.463
-43.451
-43.436
-43.416
-43.387
-43.346
-43.294
-43.240
-43.198
-43.179
-43.192
-43.238
-43.312
-43.405
-43.501
-43.580
-43.629
-43.640
-43.614
-43.562
-43.499
-43.444
-43.410
-43.398
-43.402
-43.409
-43.415
-43.422
-43.441
-43.476
-43.524
-43.573
-43.607
-43.618
-43.605
-43.577
-43.545
-43.521
-43.511
-43.515
-43.527
-43.542
-43.556
-43.569
-43.577
-43.573
-43.547
-43.495
-43.422
-43.348
-43.295
-43.279
-43.297
-43.327
-43.342
-43.328
-43.289
-43.247
-43.222
-43.226
-43.260
-43.313
-43.369
-43.412
-43.431
-43.431
-43.422
-43.416
-43.414
-43.410
-43.396
-43.372
-43.345
-43.323
-43.311
-43.309
-43.314
-43.323
-43.329
-43.333
-43.334
-43.331
-43.324
-43.312
-43.299
-43.291
-43.300
-43.326
-43.354
-43.360
-43.331
-43.279
-43.234
-43.225
-43.259
-43.318
-43.374
-43.402
-43.396
-43.363
-43.319
-43.278
-43.250
-43.235
-43.230
-43.227
-43.221
-43.215
-43.215
-43.227
-43.255
-43.296
-43.344
-43.385
-43.408
-43.406
-43.377
-43.331
-43.281
-43.241
-43.221
-43.221
-43.233
-43.247
-43.248
-43.229
-43.189
-43.141
-43.105
-43.098
-43.120
-43.161
-43.198
-43.215
-43.205
-43.175
-43.141
-43.121
-43.126
-43.156
-43.198
-43.237
-43.261
-43.269
-43.263
-43.245
-43.220
-43.191
-43.163
-43.138
-43.122
-43.123
-43.144
-43.178
-43.211
-43.230
-43.229
-43.219
-43.214
-43.219
-43.233
-43.247
-43.256
-43.258
-43.253
-43.240
-43.216
-43.183
-43.147
-43.115
-43.090
-43.073
-43.061
-43.055
-43.054
-43.050
-43.033
-42.996
-42.945
-42.897
-42.870
-42.871
-42.894
-42.926
-42.951
-42.962
-42.958
-42.943
-42.923
-42.902
-42.887
-42.883
-42.894
-42.916
-42.937
-42.946
-42.937
-42.916
-42.895
-42.880
-42.873
-42.871
-42.868
-42.860
-42.851
-42.846
-42.849
-42.857
-42.865
-42.871
-42.875
-42.881
-42.887
-42.883
-42.860
-42.812
-42.741
-42.662
-42.594
-42.553
-42.546
-42.570
-42.610
-42.647
-42.666
-42.654
-42.614
-42.552
-42.483
-42.418
-42.366
-42.332
-42.314
-42.310
-42.314
-42.321
-42.322
-42.310
-42.282
-42.246
-42.220
-42.216
-42.237
-42.270
-42.295
-42.293
-42.252
-42.175
-42.077
-41.979
-41.896
-41.836
-41.793
-41.760
-41.731
-41.700
-41.668
-41.641
-41.632
-41.645
-41.681
-41.731
-41.781
-41.811
-41.799
-41.735
-41.627
-41.504
-41.398
-41.328
-41.294
-41.288
-41.293
-41.298
-41.295
-41.280
-41.256
-41.231
-41.215
-41.211
-41.214
-41.214
-41.198
-41.160
-41.105
-41.041
-40.980
-40.931
-40.896
-40.875
-40.866
-40.870
-40.888
-40.920
-40.954
-40.975
-40.973
-40.948
-40.908
-40.866
-40.829
-40.802
-40.775
-40.735
-40.669
-40.579
-40.484
-40.410
-40.376
-40.378
-40.398
-40.417
-40.428
-40.439
-40.462
-40.501
-40.550
-40.597
-40.627
-40.635
-40.623
-40.596
-40.560
-40.513
-40.451
-40.377
-40.309
-40.263
-40.248
-40.256
-40.268
-40.272
-40.263
-40.247
-40.233
-40.225
-40.221
-40.214
-40.193
-40.149
-40.073
-39.968
-39.840
-39.702
-39.558
-39.384
-39.079
-38.377
-36.763
-33.848
-30.022
-26.036
-22.379
-19.270
-16.802
-15.015
-13.925
-13.542
-13.868
-14.899
-16.629
-19.039
-22.090
-25.691
-29.634
-33.467
-36.489
-38.285
-39.139
-39.525
-39.715
-39.822
-39.890
-39.941
-39.981
-40.010
-40.025
-40.023
-40.009
-39.995
-39.992
-40.010
-40.049
-40.103
-40.157
-40.198
-40.216
-40.212
-40.197
-40.188
-40.198
-40.236
-40.303
-40.389
-40.477
-40.549
-40.588
-40.589
-40.559
-40.514
-40.477
-40.461
-40.466
-40.480
-40.492
-40.502
-40.514
-40.534
-40.561
-40.589
-40.620
-40.661
-40.716
-40.779
-40.835
-40.868
-40.875
-40.869
-40.868
-40.886
-40.926
-40.984
-41.051
-41.121
-41.186
-41.244
-41.293
-41.332
-41.367
-41.404
-41.446
-41.490
-41.521
-41.527
-41.503
-41.454
-41.392
-41.329
-41.277
-41.246
-41.245
-41.276
-41.337
-41.417
-41.502
-41.580
-41.638
-41.677
-41.705
-41.734
-41.767
-41.799
-41.820
-41.823
-41.813
-41.803
-41.808
-41.838
-41.896
-41.972
-42.047
-42.098
-42.110
-42.085
-42.038
-41.988
-41.946
-41.920
-41.914
-41.931
-41.970
-42.023
-42.080
-42.136
-42.191
-42.248
-42.308
-42.365
-42.414
-42.449
-42.468
-42.472
-42.466
-42.455
-42.443
-42.431
-42.415
-42.396
-42.382
-42.385
-42.413
-42.462
-42.516
-42.557
-42.579
-42.590
-42.607
-42.639
-42.683
-42.728
-42.762
-42.780
-42.788
-42.795
-42.806
-42.824
-42.845
-42.866
-42.888
-42.914
-42.950
-42.997
-43.043
-43.071
-43.069
-43.037
-42.994
-42.960
-42.946
-42.955
-42.977
-43.000
-43.012
-43.010
-42.996
-42.982
-42.980
-42.995
-43.025
-43.060
-43.089
-43.107
-43.116
-43.124
-43.134
-43.145
-43.154
-43.164
-43.177
-43.194
-43.214
-43.237
-43.262
-43.288
-43.314
-43.332
-43.336
-43.326
-43.309
-43.294
-43.282
-43.267
-43.239
-43.197
-43.146
-43.097
-43.065
-43.065
-43.103
-43.175
-43.265
-43.354
-43.422
-43.460
-43.470
-43.466
-43.458
-43.453
-43.445
-43.427
-43.396
-43.356
-43.318
-43.296
-43.298
-43.325
-43.366
-43.410
-43.448
-43.479
-43.504
-43.527
-43.547
-43.564
-43.577
-43.581
-43.571
-43.546
-43.504
-43.446
-43.376
-43.303
-43.239
-43.194
-43.171
-43.167
-43.183
-43.217
-43.270
-43.334
-43.400
-43.455
-43.488
-43.494
-43.473
-43.433
-43.387
-43.348
-43.328
-43.328
-43.344
-43.363
-43.376
-43.381
-43.385
-43.399
-43.430
-43.475
-43.525
-43.564
-43.581
-43.574
-43.553
-43.529
-43.510
-43.498
-43.486
-43.470
-43.450
-43.431
-43.416
-43.411
-43.417
-43.434
-43.461
-43.491
-43.521
-43.556
-43.603
-43.667
-43.737
-43.794
-43.821
-43.813
-43.779
-43.736
-43.696
-43.674
-43.676
-43.703
-43.738
-43.757
-43.737
-43.676
-43.592
-43.512
-43.458
-43.438
-43.446
-43.468
-43.491
-43.508
-43.517
-43.520
-43.519
-43.520
-43.527
-43.544
-43.573
-43.610
-43.647
-43.679
-43.699
-43.707
-43.702
-43.689
-43.673
-43.659
-43.648
-43.635
-43.614
-43.582
-43.548
-43.531
-43.548
-43.606
-43.689
-43.763
-43.795
-43.769
-43.693
-43.596
-43.503
-43.432
-43.385
-43.359
-43.355
-43.374
-43.421
-43.496
-43.587
-43.675
-43.740
-43.773
-43.776
-43.762
-43.747
-43.736
-43.725
-43.708
-43.681
-43.647
-43.614
-43.587
-43.573
-43.573
-43.589
-43.620
-43.661
-43.701
-43.729
-43.737
-43.729
-43.714
-43.703
-43.700
-43.705
-43.717
-43.734
-43.754
-43.772
-43.784
-43.782
-43.766
-43.742
-43.723
-43.720
-43.740
-43.782
-43.837
-43.893
-43.940
-43.969
-43.975
-43.961
-43.935
-43.901
-43.865
-43.829
-43.804
-43.796
-43.811
-43.843
-43.878
-43.903
-43.912
-43.910
-43.902
-43.890
-43.873
-43.849
-43.823
-43.798
-43.775
-43.754
-43.734
-43.720
-43.714
-43.720
-43.736
-43.758
-43.776
-43.786
-43.787
-43.788
-43.801
-43.832
-43.875
-43.917
-43.946
-43.958
-43.957
-43.954
-43.951
-43.949
-43.942
-43.925
-43.902
-43.883
-43.878
-43.894
-43.926
-43.970
-44.016
-44.059
-44.093
-44.114
-44.115
-44.097
-44.065
-44.024
-43.983
-43.949
-43.925
-43.911
-43.895
-43.865
-43.813
-43.745
-43.677
-43.629
-43.614
-43.634
-43.685
-43.753
-43.820
-43.867
-43.884
-43.871
-43.843
-43.819
-43.809
-43.812
-43.816
-43.816
-43.817
-43.832
-43.863
-43.903
-43.936
-43.954
-43.961
-43.965
-43.967
-43.960
-43.935
-43.893
-43.847
-43.812
-43.799
-43.810
-43.835
-43.865
-43.886
-43.896
-43.895
-43.891
-43.891
-43.902
-43.923
-43.949
-43.971
-43.981
-43.977
-43.965
-43.957
-43.962
-43.983
-44.009
-44.027
-44.030
-44.021
-44.009
-44.000
-43.993
-43.980
-43.958
-43.927
-43.898
-43.884
-43.894
-43.926
-43.970
-44.007
-44.026
-44.022
-44.001
-43.975
-43.957
-43.954
-43.964
-43.980
-43.989
-43.985
-43.969
-43.947
